# AMS02 total e+/- spectrum (PRL, 2014, 113, 221102)
# E(GeV) E3Flux(GeV^2 m^-2 s^-1 sr^-1) Emin Emax E3Fmin E3Fmax
0.57 5.01873 0.50 0.65 4.00168 6.03578
0.73 9.2586 0.65 0.82 8.43797 10.0792
0.91 16.3525 0.82 1.01 15.1444 17.5606
1.11 27.4894 1.01 1.22 25.8425 29.1363
1.33 41.8769 1.22 1.46 39.7465 44.0073
1.58 57.587 1.46 1.72 55.2204 59.9536
1.85 75.3463 1.72 2.00 72.8136 77.879
2.15 94.1164 2.00 2.31 91.3319 96.9009
2.47 112.718 2.31 2.65 109.851 115.585
2.82 129.397 2.65 3.00 126.473 132.321
3.17 153.223 3.00 3.36 150.022 156.424
3.54 167.244 3.36 3.73 163.667 170.821
3.92 180.107 3.73 4.12 176.493 183.721
4.32 191.073 4.12 4.54 187.042 195.104
4.76 201.68 4.54 5.00 197.366 205.994
5.24 211.5 5.00 5.49 207.184 215.816
5.74 219.378 5.49 6.00 215.596 223.16
6.26 223.972 6.00 6.54 219.305 228.639
6.81 228.655 6.54 7.10 223.907 233.403
7.39 232.464 7.10 7.69 227.604 237.324
7.99 233.108 7.69 8.30 228.489 237.727
8.62 233.784 8.30 8.95 229.255 238.313
9.28 233.36 8.95 9.62 228.499 238.221
9.96 232.191 9.62 10.32 227.153 237.229
10.7 231.533 10.3 11.0 226.633 236.433
11.4 228.158 11.0 11.8 223.713 232.603
12.2 228.797 11.8 12.6 223.349 234.245
13.0 226.291 12.6 13.4 221.897 230.685
13.8 221.284 13.4 14.2 216.747 225.821
14.7 219.498 14.2 15.1 215.006 223.99
15.6 217.535 15.1 16.1 212.916 222.154
16.5 212.927 16.1 17.0 208.346 217.508
17.5 210.623 17.0 18.0 206.204 215.042
18.5 208.31 18.0 19.0 203.833 212.787
19.5 203.909 19.0 20.0 199.399 208.419
20.6 201.936 20.0 21.1 197.479 206.393
21.7 198.235 21.1 22.2 194.022 202.448
22.8 195.564 22.2 23.4 191.816 199.312
24.0 192.154 23.4 24.6 187.782 196.526
25.2 190.436 24.6 25.9 186.858 194.014
26.6 187.835 25.9 27.2 183.905 191.765
28.0 187.031 27.2 28.7 183.141 190.921
29.4 183.476 28.7 30.2 179.531 187.421
31.0 179.64 30.2 31.8 175.872 183.408
32.7 180.074 31.8 33.5 176.087 184.061
34.4 174.636 33.5 35.4 170.774 178.498
36.3 174.109 35.4 37.3 170.466 177.752
38.3 174.726 37.3 39.4 171.173 178.279
40.5 172.054 39.4 41.6 168.477 175.631
42.8 170.918 41.6 44.0 167.412 174.424
45.3 168.257 44.0 46.6 164.1 172.414
47.9 163.754 46.6 49.3 160.279 167.229
50.8 162.56 49.3 52.3 158.414 166.706
53.9 162.854 52.3 55.6 159.353 166.355
57.3 162.17 55.6 59.1 158.296 166.044
61.0 160.249 59.1 63.0 156.278 164.22
65.1 155.053 63.0 67.3 151.22 158.886
69.6 153.742 67.3 72.0 150.095 157.389
74.6 151.949 72.0 77.4 148.032 155.866
80.3 150.674 77.4 83.4 146.94 154.408
86.7 151.198 83.4 90.2 147.025 155.371
94.0 147.844 90.2 98.1 143.691 151.997
103 149.704 98 107 145.068 154.34
113 145.733 107 118 141.652 149.814
125 141.797 118 132 137.654 145.94
140 138.298 132 149 133.831 142.765
159 142.699 149 170 137.859 147.539
183 132.988 170 198 128.202 137.774
216 127.987 198 237 122.948 133.026
262 123.915 237 290 118.271 129.559
327 120.632 290 370 113.906 127.358
429 114.483 370 500 105.979 122.987
589 110.546 500 700 98.1756 122.916
832 109.427 700 1000 82.8529 136.001
